File: powder_xrd/KDP100_27112023_clear.txt
    15.0000      2630
    15.1600      2626
    15.3200      2542
    15.4800      2480
    15.6400      2488
    15.8000      2546
    15.9600      2300
    16.1200      2332
    16.2800      2406
    16.4400      2486
    16.6000      2142
    16.7600      2224
    16.9200      2240
    17.0800      2484
    17.2400      4480
    17.4000      6380
    17.5600      2652
    17.7200      1874
    17.8800      1800
    18.0400      1834
    18.2000      1738
    18.3600      1632
    18.5200      1728
    18.6800      1772
    18.8400      1786
    19.0000      1710
    19.1600      1690
    19.3200      1658
    19.4800      1630
    19.6400      1592
    19.8000      1626
    19.9600      1790
    20.1200      1726
    20.2800      1550
    20.4400      1648
    20.6000      1616
    20.7600      1554
    20.9200      1692
    21.0800      1854
    21.2400      2254
    21.4000      2132
    21.5600      1564
    21.7200      1428
    21.8800      1364
    22.0400      1364
    22.2000      1344
    22.3600      1438
    22.5200      1354
    22.6800      1286
    22.8400      1384
    23.0000      1398
    23.1600      1418
    23.3200      1548
    23.4800      2500
    23.6400      6018
    23.8000     20366
    23.9600     13048
    24.1200      2094
    24.2800      1512
    24.4400      1348
    24.6000      1414
    24.7600      1328
    24.9200      1268
    25.0800      1254
    25.2400      1226
    25.4000      1150
    25.5600      1162
    25.7200      1096
    25.8800      1178
    26.0400      1314
    26.2000      1158
    26.3600      1248
    26.5200      1122
    26.6800      1116
    26.8400      1416
    27.0000      1302
    27.1600      1156
    27.3200      1014
    27.4800      1016
    27.6400      1096
    27.8000      1176
    27.9600      1152
    28.1200      1036
    28.2800      1038
    28.4400      1026
    28.6000      1002
    28.7600      1050
    28.9200      1044
    29.0800      1016
    29.2400      1250
    29.4000      1788
    29.5600      3164
    29.7200      4318
    29.8800      1490
    30.0400      1220
    30.2000      1502
    30.3600      1920
    30.5200      5062
    30.6800     17488
    30.8400      8620
    31.0000      1466
    31.1600      1138
    31.3200       922
    31.4800       916
    31.6400       950
    31.8000      1074
    31.9600      1026
    32.1200      1014
    32.2800       814
    32.4400       934
    32.6000       868
    32.7600       882
    32.9200       950
    33.0800       900
    33.2400       864
    33.4000       866
    33.5600      1022
    33.7200      1472
    33.8800      4216
    34.0400      6994
    34.2000      2598
    34.3600       862
    34.5200       860
    34.6800       822
    34.8400       822
    35.0000      1118
    35.1600      2378
    35.3200      1804
    35.4800       870
    35.6400       840
    35.8000       736
    35.9600       744
    36.1200       690
    36.2800       698
    36.4400       678
    36.6000       752
    36.7600       908
    36.9200       852
    37.0800       688
    37.2400       742
    37.4000       696
    37.5600       686
    37.7200       684
    37.8800       780
    38.0400      1530
    38.2000      2032
    38.3600      2956
    38.5200      3042
    38.6800      1080
    38.8400       630
    39.0000       628
    39.1600       674
    39.3200       670
    39.4800       608
    39.6400       620
    39.8000       628
    39.9600       670
    40.1200       690
    40.2800       686
    40.4400      1006
    40.6000      1588
    40.7600      1170
    40.9200       694
    41.0800       790
    41.2400       964
    41.4000       702
    41.5600       612
    41.7200       708
    41.8800       718
    42.0400       660
    42.2000       666
    42.3600       584
    42.5200       582
    42.6800       586
    42.8400       578
    43.0000       592
    43.1600       646
    43.3200       578
    43.4800       672
    43.6400       602
    43.8000       562
    43.9600       584
    44.1200       614
    44.2800       580
    44.4400       600
    44.6000       572
    44.7600       586
    44.9200       604
    45.0800       596
    45.2400       636
    45.4000       748
    45.5600      1444
    45.7200      3552
    45.8800      2184
    46.0400      1034
    46.2000      1590
    46.3600      8950
    46.5200     13978
    46.6800      4032
    46.8400       854
    47.0000       712
    47.1600       744
    47.3200       692
    47.4800       832
    47.6400      1310
    47.8000      1006
    47.9600       640
    48.1200       572
    48.2800       604
    48.4400       548
    48.6000       566
    48.7600       914
    48.9200       882
    49.0800       650
    49.2400       574
    49.4000       530
    49.5600       518
    49.7200       456
    49.8800       524
    50.0400       512
    50.2000       536
    50.3600       548
    50.5200       526
    50.6800       498
    50.8400       486
    51.0000       450
    51.1600       464
    51.3200       482
    51.4800       468
    51.6400       530
    51.8000       472
    51.9600       518
    52.1200       610
    52.2800       786
    52.4400       592
    52.6000       514
    52.7600       456
    52.9200       462
    53.0800       452
    53.2400       458
    53.4000       480
    53.5600       428
    53.7200       474
    53.8800       580
    54.0400       600
    54.2000       526
    54.3600       466
    54.5200       498
    54.6800       518
    54.8400       774
    55.0000      1744
    55.1600      1558
    55.3200       718
    55.4800       440
    55.6400       458
    55.8000       462
    55.9600       456
    56.1200       466
    56.2800       450
    56.4400       414
    56.6000       476
    56.7600       434
    56.9200       464
    57.0800       456
    57.2400       442
    57.4000       410
    57.5600       452
    57.7200       418
    57.8800       488
    58.0400       516
    58.2000       772
    58.3600      2008
    58.5200      1560
    58.6800      1374
    58.8400      3250
    59.0000      1972
    59.1600       618
    59.3200       466
    59.4800       496
    59.6400       560
    59.8000       772
    59.9600       670
    60.0000       610