File: powder_xrd/KDP25_TU75_27112023.txt
    15.0000      3622
    15.1600      3532
    15.3200      3520
    15.4800      3400
    15.6400      3600
    15.8000      3482
    15.9600      3820
    16.1200      4822
    16.2800      7148
    16.4400      9548
    16.6000      4310
    16.7600      4760
    16.9200      4984
    17.0800      4244
    17.2400      5968
    17.4000      6938
    17.5600      3198
    17.7200      3090
    17.8800      3022
    18.0400      3042
    18.2000      2986
    18.3600      2972
    18.5200      2964
    18.6800      2872
    18.8400      2954
    19.0000      2950
    19.1600      2998
    19.3200      2982
    19.4800      2820
    19.6400      3014
    19.8000      3598
    19.9600      5228
    20.1200      6466
    20.2800      4026
    20.4400      5920
    20.6000      6198
    20.7600      6670
    20.9200      9098
    21.0800     13152
    21.2400     27446
    21.4000     16836
    21.5600      5650
    21.7200      3174
    21.8800      2998
    22.0400      2840
    22.2000      3262
    22.3600      3972
    22.5200      3338
    22.6800      2852
    22.8400      2852
    23.0000      3006
    23.1600      3364
    23.3200      5636
    23.4800     15308
    23.6400     16018
    23.8000     10276
    23.9600     10710
    24.1200      3136
    24.2800      3044
    24.4400      3308
    24.6000      5642
    24.7600      5400
    24.9200      2936
    25.0800      2648
    25.2400      2652
    25.4000      2748
    25.5600      3050
    25.7200      2998
    25.8800      3912
    26.0400      5080
    26.2000      5614
    26.3600      5788
    26.5200      2900
    26.6800      2558
    26.8400      2600
    27.0000      2586
    27.1600      2436
    27.3200      2468
    27.4800      2510
    27.6400      2410
    27.8000      2446
    27.9600      2542
    28.1200      2632
    28.2800      3802
    28.4400      5494
    28.6000      4582
    28.7600      2542
    28.9200      2616
    29.0800      3504
    29.2400      7422
    29.4000      9410
    29.5600      7940
    29.7200      3918
    29.8800      2622
    30.0400      2554
    30.2000      3040
    30.3600      3282
    30.5200      4844
    30.6800      8986
    30.8400      5918
    31.0000      3188
    31.1600      3998
    31.3200      2932
    31.4800      2602
    31.6400      3824
    31.8000      6830
    31.9600      6486
    32.1200      4494
    32.2800      2510
    32.4400      2616
    32.6000      2504
    32.7600      2426
    32.9200      3604
    33.0800      3224
    33.2400      2324
    33.4000      2234
    33.5600      2336
    33.7200      2498
    33.8800      3574
    34.0400      4582
    34.2000      2698
    34.3600      2290
    34.5200      2124
    34.6800      2178
    34.8400      2174
    35.0000      3288
    35.1600      4462
    35.3200      3110
    35.4800      2346
    35.6400      3276
    35.8000      3544
    35.9600      2310
    36.1200      2122
    36.2800      2136
    36.4400      2356
    36.6000      3490
    36.7600      7910
    36.9200      6478
    37.0800      2824
    37.2400      2718
    37.4000      2972
    37.5600      2232
    37.7200      2326
    37.8800      2204
    38.0400      2440
    38.2000      2712
    38.3600      3152
    38.5200      2610
    38.6800      2034
    38.8400      2160
    39.0000      2324
    39.1600      2340
    39.3200      2286
    39.4800      1978
    39.6400      2076
    39.8000      2170
    39.9600      2088
    40.1200      2076
    40.2800      2142
    40.4400      2818
    40.6000      5442
    40.7600      4404
    40.9200      2546
    41.0800      2190
    41.2400      2258
    41.4000      2864
    41.5600      4804
    41.7200      4026
    41.8800      3284
    42.0400      3276
    42.2000      3174
    42.3600      2792
    42.5200      2886
    42.6800      2320
    42.8400      1980
    43.0000      2078
    43.1600      2290
    43.3200      3404
    43.4800      3458
    43.6400      2390
    43.8000      2066
    43.9600      2240
    44.1200      2300
    44.2800      2158
    44.4400      2066
    44.6000      2120
    44.7600      2324
    44.9200      2230
    45.0800      2138
    45.2400      2182
    45.4000      2770
    45.5600      3396
    45.7200      4280
    45.8800      3058
    46.0400      2880
    46.2000      3036
    46.3600      4768
    46.5200      4852
    46.6800      2824
    46.8400      2188
    47.0000      2428
    47.1600      3130
    47.3200      2884
    47.4800      3552
    47.6400      4616
    47.8000      3230
    47.9600      2440
    48.1200      2444
    48.2800      2668
    48.4400      2284
    48.6000      2364
    48.7600      2986
    48.9200      3030
    49.0800      2646
    49.2400      2552
    49.4000      2828
    49.5600      2638
    49.7200      2292
    49.8800      2902
    50.0400      2934
    50.2000      3278
    50.3600      2978
    50.5200      3624
    50.6800      4034
    50.8400      3800
    51.0000      2440
    51.1600      2024
    51.3200      1952
    51.4800      2100
    51.6400      2422
    51.8000      2426
    51.9600      2310
    52.1200      2868
    52.2800      3432
    52.4400      2484
    52.6000      2176
    52.7600      2376
    52.9200      2644
    53.0800      2898
    53.2400      2644
    53.4000      2594
    53.5600      2386
    53.7200      2146
    53.8800      2190
    54.0400      2460
    54.2000      3040
    54.3600      3108
    54.5200      2592
    54.6800      2830
    54.8400      2648
    55.0000      2442
    55.1600      2256
    55.3200      2126
    55.4800      2344
    55.6400      2160
    55.8000      2070
    55.9600      2028
    56.1200      1940
    56.2800      1920
    56.4400      2104
    56.6000      2528
    56.7600      2576
    56.9200      2124
    57.0800      1962
    57.2400      1878
    57.4000      1884
    57.5600      2012
    57.7200      2020
    57.8800      2096
    58.0400      1998
    58.2000      1950
    58.3600      2102
    58.5200      2160
    58.6800      2206
    58.8400      2460
    59.0000      2480
    59.1600      2526
    59.3200      3228
    59.4800      2816
    59.6400      2366
    59.8000      2596
    59.9600      2434
    60.0000      2186