File: powder_xrd/KDP50_TU50-re1_11122023_clear.txt
    15.0000      3438
    15.2000      3090
    15.4000      3196
    15.6000      3056
    15.8000      3124
    16.0000      3038
    16.2000      3462
    16.4000      5778
    16.6000      5328
    16.8000      3408
    17.0000      3312
    17.2000      3986
    17.4000      8828
    17.6000      3016
    17.8000      2492
    18.0000      2374
    18.2000      2464
    18.4000      2460
    18.6000      2396
    18.8000      2388
    19.0000      2326
    19.2000      2296
    19.4000      2264
    19.6000      2280
    19.8000      2458
    20.0000      3140
    20.2000      3856
    20.4000      2798
    20.6000      3754
    20.8000      3548
    21.0000      4446
    21.2000      6672
    21.4000      9528
    21.6000      3718
    21.8000      2074
    22.0000      2072
    22.2000      2066
    22.4000      2302
    22.6000      2158
    22.8000      2052
    23.0000      2018
    23.2000      2220
    23.4000      3362
    23.6000      8612
    23.8000     13974
    24.0000     12560
    24.2000      2444
    24.4000      2148
    24.6000      2592
    24.8000      2886
    25.0000      1932
    25.2000      1946
    25.4000      1862
    25.6000      1988
    25.8000      1990
    26.0000      2366
    26.2000      2730
    26.4000      3250
    26.6000      1970
    26.8000      1906
    27.0000      1980
    27.2000      1850
    27.4000      1676
    27.6000      1630
    27.8000      1778
    28.0000      1894
    28.2000      1724
    28.4000      2222
    28.6000      2490
    28.8000      1736
    29.0000      1740
    29.2000      2534
    29.4000      5612
    29.6000      5958
    29.8000      3324
    30.0000      1944
    30.2000      2088
    30.4000      2572
    30.6000     12208
    30.8000     15556
    31.0000      3380
    31.2000      2226
    31.4000      1766
    31.6000      1682
    31.8000      2780
    32.0000      3210
    32.2000      2492
    32.4000      1600
    32.6000      1646
    32.8000      1566
    33.0000      2104
    33.2000      1838
    33.4000      1484
    33.6000      1530
    33.8000      2390
    34.0000      5828
    34.2000      3660
    34.4000      1556
    34.6000      1518
    34.8000      1448
    35.0000      1800
    35.2000      3018
    35.4000      2304
    35.6000      1540
    35.8000      1976
    36.0000      1538
    36.2000      1430
    36.4000      1394
    36.6000      1612
    36.8000      3500
    37.0000      4282
    37.2000      1556
    37.4000      1580
    37.6000      1454
    37.8000      1544
    38.0000      1638
    38.2000      2172
    38.4000      3088
    38.6000      2736
    38.8000      1422
    39.0000      1356
    39.2000      1382
    39.4000      1264
    39.6000      1264
    39.8000      1294
    40.0000      1328
    40.2000      1354
    40.4000      1478
    40.6000      2444
    40.8000      3154
    41.0000      1518
    41.2000      1472
    41.4000      1460
    41.6000      1698
    41.8000      2036
    42.0000      1908
    42.2000      1958
    42.4000      1580
    42.6000      1660
    42.8000      1346
    43.0000      1242
    43.2000      1382
    43.4000      2062
    43.6000      1728
    43.8000      1282
    44.0000      1304
    44.2000      1336
    44.4000      1272
    44.6000      1274
    44.8000      1424
    45.0000      1344
    45.2000      1322
    45.4000      1496
    45.6000      1996
    45.8000      3160
    46.0000      3124
    46.2000      2586
    46.4000      5106
    46.6000      6186
    46.8000      1922
    47.0000      1378
    47.2000      1482
    47.4000      1656
    47.6000      2242
    47.8000      2628
    48.0000      1566
    48.2000      1316
    48.4000      1406
    48.6000      1280
    48.8000      1716
    49.0000      1780
    49.2000      1580
    49.4000      1516
    49.6000      1524
    49.8000      1260
    50.0000      1474
    50.2000      1464
    50.4000      1416
    50.6000      1538
    50.8000      1650
    51.0000      1332
    51.2000      1202
    51.4000      1118
    51.6000      1204
    51.8000      1424
    52.0000      1412
    52.2000      1538
    52.4000      1614
    52.6000      1274
    52.8000      1520
    53.0000      1546
    53.2000      1526
    53.4000      1542
    53.6000      1410
    53.8000      1304
    54.0000      1340
    54.2000      1570
    54.4000      1526
    54.6000      1414
    54.8000      1372
    55.0000      2036
    55.2000      2942
    55.4000      1888
    55.6000      1322
    55.8000      1274
    56.0000      1210
    56.2000      1122
    56.4000      1126
    56.6000      1262
    56.8000      1294
    57.0000      1218
    57.2000      1128
    57.4000      1146
    57.6000      1210
    57.8000      1140
    58.0000      1244
    58.2000      1242
    58.4000      1580
    58.6000      1614
    58.8000      2224
    59.0000      1906
    59.2000      1574
    59.4000      1452
    59.6000      1310
    59.8000      1754
    60.0000      1672