File: powder_xrd/KDP50_TU50-re2_11122023.txt
    15.0000      3156
    15.2000      3120
    15.4000      3052
    15.6000      3032
    15.8000      3108
    16.0000      3104
    16.2000      3644
    16.4000      6248
    16.6000      3592
    16.8000      3326
    17.0000      3042
    17.2000      4454
    17.4000      5808
    17.6000      2672
    17.8000      2444
    18.0000      2482
    18.2000      2334
    18.4000      2300
    18.6000      2354
    18.8000      2322
    19.0000      2330
    19.2000      2264
    19.4000      2184
    19.6000      2278
    19.8000      2436
    20.0000      3216
    20.2000      3720
    20.4000      2844
    20.6000      3718
    20.8000      3694
    21.0000      4220
    21.2000      7644
    21.4000      8134
    21.6000      2798
    21.8000      2068
    22.0000      1980
    22.2000      2140
    22.4000      2402
    22.6000      2118
    22.8000      1818
    23.0000      1968
    23.2000      2246
    23.4000      4090
    23.6000      9382
    23.8000     12808
    24.0000     11936
    24.2000      2358
    24.4000      2086
    24.6000      2722
    24.8000      2856
    25.0000      1930
    25.2000      1834
    25.4000      1838
    25.6000      2004
    25.8000      1990
    26.0000      2474
    26.2000      2946
    26.4000      2638
    26.6000      1798
    26.8000      2010
    27.0000      1908
    27.2000      1736
    27.4000      1642
    27.6000      1660
    27.8000      1768
    28.0000      1816
    28.2000      1886
    28.4000      2366
    28.6000      3374
    28.8000      1786
    29.0000      1810
    29.2000      2696
    29.4000      4536
    29.6000      5868
    29.8000      2842
    30.0000      1860
    30.2000      2192
    30.4000      2964
    30.6000      9002
    30.8000     11232
    31.0000      2168
    31.2000      2010
    31.4000      1522
    31.6000      1852
    31.8000      3114
    32.0000      3334
    32.2000      2048
    32.4000      1568
    32.6000      1572
    32.8000      1684
    33.0000      2012
    33.2000      1646
    33.4000      1546
    33.6000      1698
    33.8000      2396
    34.0000      5304
    34.2000      2084
    34.4000      1542
    34.6000      1424
    34.8000      1412
    35.0000      1954
    35.2000      3180
    35.4000      1822
    35.6000      1628
    35.8000      1730
    36.0000      1450
    36.2000      1358
    36.4000      1388
    36.6000      1924
    36.8000      3088
    37.0000      1946
    37.2000      1490
    37.4000      1702
    37.6000      1398
    37.8000      1418
    38.0000      2008
    38.2000      2208
    38.4000      4578
    38.6000      3872
    38.8000      1368
    39.0000      1394
    39.2000      1358
    39.4000      1238
    39.6000      1300
    39.8000      1268
    40.0000      1294
    40.2000      1328
    40.4000      1498
    40.6000      2580
    40.8000      2430
    41.0000      1572
    41.2000      1346
    41.4000      1442
    41.6000      1858
    41.8000      2086
    42.0000      2110
    42.2000      1888
    42.4000      1560
    42.6000      1506
    42.8000      1232
    43.0000      1206
    43.2000      1372
    43.4000      1870
    43.6000      1530
    43.8000      1278
    44.0000      1394
    44.2000      1332
    44.4000      1250
    44.6000      1326
    44.8000      1324
    45.0000      1284
    45.2000      1430
    45.4000      2204
    45.6000      3494
    45.8000      2880
    46.0000      2028
    46.2000      2470
    46.4000      7056
    46.6000     14576
    46.8000      2966
    47.0000      1468
    47.2000      1860
    47.4000      1806
    47.6000      2532
    47.8000      1986
    48.0000      1490
    48.2000      1468
    48.4000      1488
    48.6000      1374
    48.8000      1594
    49.0000      1962
    49.2000      1470
    49.4000      1428
    49.6000      1266
    49.8000      1332
    50.0000      1374
    50.2000      1512
    50.4000      1476
    50.6000      1844
    50.8000      1554
    51.0000      1228
    51.2000      1144
    51.4000      1162
    51.6000      1266
    51.8000      1256
    52.0000      1314
    52.2000      1670
    52.4000      1580
    52.6000      1208
    52.8000      1334
    53.0000      1416
    53.2000      1444
    53.4000      1368
    53.6000      1340
    53.8000      1238
    54.0000      1384
    54.2000      1476
    54.4000      1414
    54.6000      1274
    54.8000      1536
    55.0000      2128
    55.2000      1962
    55.4000      1328
    55.6000      1304
    55.8000      1196
    56.0000      1152
    56.2000      1100
    56.4000      1168
    56.6000      1290
    56.8000      1390
    57.0000      1168
    57.2000      1090
    57.4000      1176
    57.6000      1182
    57.8000      1130
    58.0000      1190
    58.2000      1384
    58.4000      2012
    58.6000      1710
    58.8000      2384
    59.0000      1888
    59.2000      1354
    59.4000      1278
    59.6000      1448
    59.8000      1656
    60.0000      1310