File: powder_xrd/KDP75_TU25_27112023_clear.txt
    15.0000      3158
    15.1600      2842
    15.3200      2730
    15.4800      2670
    15.6400      2858
    15.8000      2788
    15.9600      2780
    16.1200      2916
    16.2800      3570
    16.4400      5662
    16.6000      3486
    16.7600      2870
    16.9200      3228
    17.0800      2954
    17.2400      4270
    17.4000      7052
    17.5600      4136
    17.7200      2402
    17.8800      2184
    18.0400      2226
    18.2000      2176
    18.3600      2086
    18.5200      2134
    18.6800      2140
    18.8400      2138
    19.0000      2168
    19.1600      2176
    19.3200      2096
    19.4800      2110
    19.6400      2090
    19.8000      2098
    19.9600      2636
    20.1200      4624
    20.2800      3260
    20.4400      2686
    20.6000      3712
    20.7600      2998
    20.9200      4242
    21.0800      3966
    21.2400      8136
    21.4000     10920
    21.5600      4564
    21.7200      1956
    21.8800      1916
    22.0400      1886
    22.2000      1880
    22.3600      2180
    22.5200      2088
    22.6800      1824
    22.8400      1834
    23.0000      1858
    23.1600      1998
    23.3200      2376
    23.4800      4684
    23.6400      8738
    23.8000     17252
    23.9600     19334
    24.1200      3326
    24.2800      2148
    24.4400      1940
    24.6000      2334
    24.7600      2760
    24.9200      2140
    25.0800      1746
    25.2400      1684
    25.4000      1688
    25.5600      1816
    25.7200      1810
    25.8800      1760
    26.0400      2274
    26.2000      2448
    26.3600      2768
    26.5200      2016
    26.6800      1624
    26.8400      1776
    27.0000      1768
    27.1600      1660
    27.3200      1538
    27.4800      1560
    27.6400      1572
    27.8000      1632
    27.9600      1634
    28.1200      1564
    28.2800      1764
    28.4400      2270
    28.6000      2112
    28.7600      1718
    28.9200      1614
    29.0800      1698
    29.2400      2538
    29.4000      3970
    29.5600      5338
    29.7200      5276
    29.8800      3026
    30.0400      1732
    30.2000      1882
    30.3600      2038
    30.5200      3712
    30.6800     10448
    30.8400     15500
    31.0000      3298
    31.1600      2172
    31.3200      2066
    31.4800      1542
    31.6400      1690
    31.8000      2784
    31.9600      2982
    32.1200      2370
    32.2800      1752
    32.4400      1622
    32.6000      1622
    32.7600      1422
    32.9200      1726
    33.0800      1876
    33.2400      1502
    33.4000      1404
    33.5600      1404
    33.7200      1608
    33.8800      2684
    34.0400      4744
    34.2000      2664
    34.3600      1486
    34.5200      1320
    34.6800      1292
    34.8400      1276
    35.0000      1488
    35.1600      3156
    35.3200      4148
    35.4800      1702
    35.6400      1438
    35.8000      1732
    35.9600      1340
    36.1200      1210
    36.2800      1252
    36.4400      1218
    36.6000      1418
    36.7600      2626
    36.9200      2732
    37.0800      1566
    37.2400      1280
    37.4000      1456
    37.5600      1298
    37.7200      1258
    37.8800      1292
    38.0400      1514
    38.2000      2092
    38.3600      2512
    38.5200      3422
    38.6800      1816
    38.8400      1222
    39.0000      1278
    39.1600      1276
    39.3200      1162
    39.4800      1158
    39.6400      1136
    39.8000      1122
    39.9600      1192
    40.1200      1120
    40.2800      1128
    40.4400      1246
    40.6000      2120
    40.7600      2626
    40.9200      1504
    41.0800      1242
    41.2400      1322
    41.4000      1324
    41.5600      1596
    41.7200      2000
    41.8800      2342
    42.0400      1690
    42.2000      3086
    42.3600      2778
    42.5200      1510
    42.6800      1312
    42.8400      1116
    43.0000      1092
    43.1600      1164
    43.3200      1424
    43.4800      1826
    43.6400      1422
    43.8000      1172
    43.9600      1130
    44.1200      1162
    44.2800      1198
    44.4400      1178
    44.6000      1190
    44.7600      1248
    44.9200      1312
    45.0800      1236
    45.2400      1170
    45.4000      1320
    45.5600      1848
    45.7200      3490
    45.8800      3222
    46.0400      1828
    46.2000      1814
    46.3600      4252
    46.5200      9526
    46.6800      4696
    46.8400      1536
    47.0000      1164
    47.1600      1450
    47.3200      1490
    47.4800      1534
    47.6400      2264
    47.8000      2284
    47.9600      1402
    48.1200      1242
    48.2800      1224
    48.4400      1164
    48.6000      1200
    48.7600      1450
    48.9200      1996
    49.0800      1508
    49.2400      1274
    49.4000      1238
    49.5600      1314
    49.7200      1208
    49.8800      1188
    50.0400      1236
    50.2000      1288
    50.3600      1280
    50.5200      1288
    50.6800      1488
    50.8400      1444
    51.0000      1136
    51.1600       942
    51.3200      1046
    51.4800      1026
    51.6400      1064
    51.8000      1262
    51.9600      1192
    52.1200      1256
    52.2800      1636
    52.4400      1406
    52.6000      1038
    52.7600      1164
    52.9200      1174
    53.0800      1254
    53.2400      1244
    53.4000      1198
    53.5600      1154
    53.7200      1150
    53.8800      1168
    54.0400      1278
    54.2000      1364
    54.3600      1410
    54.5200      1246
    54.6800      1168
    54.8400      1344
    55.0000      3220
    55.1600      3298
    55.3200      1650
    55.4800      1302
    55.6400      1270
    55.8000      1080
    55.9600      1068
    56.1200      1024
    56.2800      1018
    56.4400       950
    56.6000      1126
    56.7600      1216
    56.9200      1162
    57.0800      1010
    57.2400      1008
    57.4000      1016
    57.5600      1014
    57.7200       974
    57.8800      1138
    58.0400      1104
    58.2000      1136
    58.3600      1834
    58.5200      2992
    58.6800      2104
    58.8400      2182
    59.0000      2274
    59.1600      1528
    59.3200      1212
    59.4800      1100
    59.6400      1208
    59.8000      1542
    59.9600      1504
    60.0000      1398