File: powder_xrd/Tu100_27112023_clear.txt
15.0000      9024
15.1600      4248
15.3200      4084
15.4800      4000
15.6400      3900
15.8000      3952
15.9600      4064
16.1200      4280
16.2800      5658
16.4400     10682
16.6000     12914
16.7600      5056
16.9200      6254
17.0800      5656
17.2400      4898
17.4000     11052
17.5600      8538
17.7200      3860
17.8800      3646
18.0400      3600
18.2000      3598
18.3600      3528
18.5200      3498
18.6800      3490
18.8400      3564
19.0000      3558
19.1600      3532
19.3200      3530
19.4800      3572
19.6400      3434
19.8000      3552
19.9600      4388
20.1200     13358
20.2800     11978
20.4400      5014
20.6000      9074
20.7600      8778
20.9200     11042
21.0800     14220
21.2400     17820
21.4000     39694
21.5600     29468
21.7200      7032
21.8800      4300
22.0400      3606
22.2000      3700
22.3600      3994
22.5200      5556
22.6800      5366
22.8400      3562
23.0000      3542
23.1600      3644
23.3200      3968
23.4800      7246
23.6400     22514
23.8000     19626
23.9600      4414
24.1200      3408
24.2800      3332
24.4400      3494
24.6000      4356
24.7600      9178
24.9200      6996
25.0800      3612
25.2400      3202
25.4000      3212
25.5600      3450
25.7200      4448
25.8800      3886
26.0400      4640
26.2000      7494
26.3600      7256
26.5200      7664
26.6800      3550
26.8400      3134
27.0000      2974
27.1600      3058
27.3200      2978
27.4800      3046
27.6400      2984
27.8000      2964
27.9600      2986
28.1200      2920
28.2800      3176
28.4400      4896
28.6000      6934
28.7600      5148
28.9200      3224
29.0800      3244
29.2400      4862
29.4000     10984
29.5600     16672
29.7200     14390
29.8800      3922
30.0400      3112
30.2000      3206
30.3600      3802
30.5200      3570
30.6800      3752
30.8400      4078
31.0000      4306
31.1600      3952
31.3200      5170
31.4800      3732
31.6400      3208
31.8000      5368
31.9600     10016
32.1200      8428
32.2800      5506
32.4400      3298
32.6000      3260
32.7600      3348
32.9200      3184
33.0800      4682
33.2400      4972
33.4000      2976
33.5600      2828
33.7200      3040
33.8800      2982
34.0400      2938
34.2000      3388
34.3600      3108
34.5200      2860
34.6800      2762
34.8400      2764
35.0000      3020
35.1600      4446
35.3200      6752
35.4800      4124
35.6400      3078
35.8000      4426
35.9600      4600
36.1200      3012
36.2800      2810
36.4400      2760
36.6000      2976
36.7600      4754
36.9200      9914
37.0800      6944
37.2400      3562
37.4000      4408
37.5600      4228
37.7200      3020
37.8800      3070
38.0400      3064
38.2000      2706
38.3600      2606
38.5200      2696
38.6800      2696
38.8400      2658
39.0000      2944
39.1600      3188
39.3200      3042
39.4800      2708
39.6400      2622
39.8000      2752
39.9600      2746
40.1200      2674
40.2800      2838
40.4400      2774
40.6000      3562
40.7600      5764
40.9200      5390
41.0800      3256
41.2400      2940
41.4000      3054
41.5600      3930
41.7200      4826
41.8800      6436
42.0400      4782
42.2000      5326
42.3600      4796
42.5200      4356
42.6800      5274
42.8400      3350
43.0000      2832
43.1600      2744
43.3200      3164
43.4800      5492
43.6400      5534
43.8000      3452
43.9600      2892
44.1200      3076
44.2800      3214
44.4400      2802
44.6000      2782
44.7600      3190
44.9200      3274
45.0800      3050
45.2400      2844
45.4000      3124
45.5600      4394
45.7200      4438
45.8800      4278
46.0400      4522
46.2000      3988
46.3600      3646
46.5200      3638
46.6800      3386
46.8400      3218
47.0000      3010
47.1600      3216
47.3200      4396
47.4800      4494
47.6400      5126
47.8000      6990
47.9600      5094
48.1200      3470
48.2800      3342
48.4400      3392
48.6000      3086
48.7600      3188
48.9200      4096
49.0800      5028
49.2400      4164
49.4000      3526
49.5600      3728
49.7200      3164
49.8800      3088
50.0400      3686
50.2000      3756
50.3600      3930
50.5200      3872
50.6800      4454
50.8400      4960
51.0000      3930
51.1600      2936
51.3200      2760
51.4800      2764
51.6400      2896
51.8000      3356
51.9600      3574
52.1200      3264
52.2800      3810
52.4400      4210
52.6000      3352
52.7600      3110
52.9200      3532
53.0800      4050
53.2400      4278
53.4000      6366
53.5600      5598
53.7200      3926
53.8800      3062
54.0400      2996
54.2000      3496
54.3600      4348
54.5200      3766
54.6800      3274
54.8400      3308
55.0000      2924
55.1600      2684
55.3200      2666
55.4800      2984
55.6400      3440
55.8000      3164
55.9600      2942
56.1200      2932
56.2800      2712
56.4400      2866
56.6000      3404
56.7600      3836
56.9200      3658
57.0800      3008
57.2400      2720
57.4000      2560
57.5600      2740
57.7200      2740
57.8800      2764
58.0400      2928
58.2000      2698
58.3600      2620
58.5200      2558
58.6800      2610
58.8400      2662
59.0000      2796
59.1600      3246
59.3200      3330
59.4800      3266
59.6400      3356
59.8000      3496
59.9600      3442
60.0000      3458